Point in Time[s],Power Consumption[W]
8.693,90.0
18.704,50.0
28.714,51.0
36.142,95.0
48.303,59.0
58.313,54.0
68.327,79.0
78.338,52.0
88.349,66.0
98.36,103.0
108.376,85.0
118.387,50.0
128.399,50.0
138.411,55.0
148.425,49.0
155.628,48.0
168.448,92.0
178.46,55.0
188.472,49.0
198.484,53.0
208.496,91.0
215.754,106.0
228.522,49.0
238.532,49.0
248.545,51.0
258.556,49.0
268.567,49.0
275.892,97.0
288.592,49.0
298.605,49.0
308.629,66.0
318.639,55.0
328.65,54.0
336.009,122.0
348.673,134.0
358.683,121.0
368.694,69.0
378.704,121.0
388.716,95.0
396.174,72.0
408.308,110.0
418.322,108.0
428.331,128.0
438.343,109.0
448.353,110.0
455.552,124.0
468.376,109.0
478.385,108.0
488.396,112.0
498.406,100.0
508.417,128.0
515.716,111.0
528.437,100.0
538.45,124.0
548.46,111.0
558.47,110.0
568.481,101.0
575.891,131.0
588.504,105.0
598.513,100.0
608.524,102.0
618.535,103.0
628.546,127.0
636.085,100.0
648.321,87.0
658.329,77.0
668.348,77.0
678.358,82.0
688.37,90.0
698.382,81.0
708.397,52.0
718.407,49.0
728.418,92.0
738.431,52.0
748.442,64.0
755.704,70.0
768.464,49.0
778.476,49.0
788.486,66.0
798.497,49.0
808.509,51.0
815.837,93.0
828.535,62.0
838.546,62.0
848.557,53.0
858.568,56.0
868.58,55.0
876.016,53.0
888.316,90.0
898.346,49.0
908.356,54.0
918.365,59.0
928.378,49.0
938.39,102.0
948.406,96.0
958.418,112.0
965.591,132.0
978.311,66.0
988.327,92.0
995.466,105.0
1008.351,110.0
1018.36,110.0
1028.376,111.0
1038.385,111.0
1048.401,110.0
1055.614,119.0
1068.427,111.0
1078.442,109.0
1088.455,105.0
1098.465,101.0
1108.482,105.0
1115.769,138.0
1128.509,101.0
1138.518,102.0
1148.536,100.0
1158.547,98.0
1168.564,100.0
1175.923,110.0
1188.586,106.0
1198.602,103.0
1208.613,101.0
1218.644,101.0
1228.657,102.0
1236.087,106.0
1248.317,100.0
1258.328,120.0
1268.344,122.0
1278.354,99.0
1285.639,101.0
1295.676,110.0
1308.389,111.0
1318.411,103.0
1328.427,103.0
1338.437,101.0
1348.458,100.0
1355.81,112.0
1368.313,100.0
1378.334,99.0
1388.344,119.0
1398.364,102.0
1408.376,126.0
1418.394,124.0
1428.409,105.0
1438.423,105.0
1448.433,103.0
1458.448,100.0
1468.46,97.0
1475.675,118.0
1488.493,103.0
1498.511,99.0
1508.521,105.0
1518.537,104.0
1528.547,102.0
1535.818,115.0
1548.574,102.0
1558.59,111.0
1568.604,99.0
1578.62,145.0
1588.641,144.0
1595.966,111.0
1608.32,108.0
1618.333,133.0
1628.354,127.0
1638.369,154.0
1648.378,149.0
1655.583,153.0
1668.402,142.0
1678.413,127.0
1688.426,145.0
1698.47,160.0
1708.479,146.0
1715.743,146.0
1728.502,140.0
1738.512,160.0
1748.521,131.0
1758.53,132.0
1768.541,139.0
1775.896,150.0
1788.564,140.0
1798.574,138.0
1808.586,140.0
1816.001,144.0
1828.323,134.0
1835.45,140.0
1848.371,148.0
1858.4,153.0
1868.413,145.0
1878.429,132.0
1888.442,149.0
1898.474,152.0
1908.486,147.0
1918.502,146.0
1928.512,145.0
1938.536,140.0
1948.548,143.0
1955.743,148.0
1968.574,142.0
1978.591,136.0
1988.603,137.0
1998.62,139.0
2008.63,140.0
2015.884,147.0
2028.667,149.0
2038.683,139.0
2048.693,140.0
2058.71,139.0
2068.726,145.0
2076.067,140.0
2088.33,147.0
2098.34,144.0
2108.355,152.0
2118.365,132.0
2128.376,152.0
2135.567,153.0
2148.401,137.0
2158.418,139.0
2168.427,150.0
2178.437,147.0
2188.448,138.0
2195.737,153.0
2208.474,170.0
2218.483,142.0
2228.494,187.0
2235.862,150.0
2248.326,137.0
2258.348,157.0
2268.368,157.0
2278.411,138.0
2288.428,145.0
2298.438,139.0
2308.453,157.0
2315.598,148.0
2328.482,142.0
2338.492,142.0
2348.503,158.0
2358.514,142.0
2368.524,154.0
2375.776,163.0
2385.8,178.0
2398.334,156.0
2408.357,171.0
2418.37,172.0
2429.061,163.0
2435.536,176.0
2449.087,165.0
2459.113,168.0
2469.124,154.0
2479.143,160.0
2489.158,160.0
2495.69,157.0
2509.188,153.0
2519.206,152.0
2529.266,176.0
2539.286,171.0
2549.297,156.0
2555.854,173.0
2568.332,181.0
2578.354,157.0
2598.381,185.0
2608.39,188.0
2615.641,191.0
2628.413,178.0
2638.427,176.0
2648.445,176.0
2658.455,178.0
2668.473,166.0
2675.805,170.0
2688.505,168.0
2698.515,174.0
2708.535,175.0
2718.545,170.0
2728.558,181.0
2735.972,187.0
2748.58,179.0
2758.591,166.0
2768.607,175.0
2778.619,168.0
2788.633,176.0
2796.175,197.0
2807.436,178.0
2818.34,185.0
2828.481,177.0
2838.49,171.0
2848.508,175.0
2858.52,183.0
2868.543,175.0
2878.554,168.0
2888.574,178.0
2898.587,176.0
2908.606,178.0
2915.711,178.0
2925.737,181.0
2938.354,169.0
2948.391,166.0
2958.401,162.0
2968.42,170.0
2978.429,168.0
2988.455,179.0
2998.465,176.0
3008.476,184.0
3018.486,176.0
3028.497,187.0
3035.73,171.0
3048.518,176.0
3058.528,176.0
3065.829,179.0
3078.341,179.0
3088.352,185.0
3098.365,188.0
3108.394,186.0
3118.403,185.0
3128.422,181.0
3138.433,168.0
3148.443,168.0
3155.641,164.0
3168.483,186.0
3178.494,186.0
3188.504,178.0
3198.522,186.0
3208.533,176.0
3215.814,210.0
3225.846,199.0
3238.617,194.0
3248.628,179.0
3258.638,189.0
3268.65,187.0
3275.996,184.0
3288.343,193.0
3298.357,200.0
3308.373,196.0
3318.396,181.0
3328.408,194.0
3338.429,185.0
3348.45,176.0
3358.472,180.0
3368.483,181.0
3378.503,183.0
3388.514,193.0
3395.75,191.0
3408.546,189.0
3418.568,173.0
3428.58,178.0
3438.602,165.0
3448.611,169.0
3455.907,179.0
3468.64,168.0
3478.65,194.0
3488.663,196.0
3498.681,196.0
3508.692,179.0
3516.133,186.0
3528.353,196.0
3538.37,187.0
3548.388,187.0
3558.409,194.0
3568.418,195.0
3575.595,200.0
3588.448,186.0
3598.457,186.0
3608.472,176.0
3618.484,191.0
3628.498,198.0
3635.79,196.0
3648.518,186.0
3658.529,184.0
3668.541,187.0
3678.552,199.0
3688.571,188.0
3695.985,187.0
3708.606,181.0
3716.045,187.0
3727.266,178.0
3738.344,181.0
3748.366,187.0
3755.536,183.0
3768.397,186.0
3778.409,207.0
3788.42,183.0
3798.432,185.0
3808.443,195.0
3815.831,194.0
3828.467,184.0
3835.904,183.0
3848.347,182.0
3858.358,185.0
3868.367,197.0
3878.393,174.0
3886.551,191.0
3898.346,181.0
3908.372,189.0
3918.382,191.0
3928.408,197.0
3938.419,185.0
3948.442,191.0
3958.463,185.0
3968.476,187.0
3978.502,192.0
3988.514,185.0
3995.718,202.0
4008.546,189.0
4018.567,182.0
4028.58,178.0
4038.593,176.0
4048.604,199.0
4055.909,188.0
4068.625,198.0
4078.636,184.0
4088.647,193.0
4098.659,171.0
4108.685,178.0
4116.12,171.0
4128.356,169.0
4138.371,182.0
4148.381,183.0
4158.394,189.0
4168.405,187.0
4175.767,191.0
4188.567,202.0
4198.579,183.0
4208.597,183.0
4218.607,184.0
4228.618,181.0
4235.953,180.0
4248.639,188.0
4258.65,183.0
4268.66,189.0
4278.676,189.0
4288.691,191.0
4296.149,188.0
4308.712,191.0
4318.722,186.0
4328.733,180.0
4338.743,186.0
4346.321,183.0
4355.457,189.0
4368.383,190.0
4378.392,187.0
4388.41,189.0
4398.421,184.0
4408.448,201.0
4415.626,198.0
4428.483,194.0
4438.493,187.0
4445.733,200.0
4458.354,201.0
4468.366,194.0
4475.523,193.0
4485.566,191.0
4498.357,186.0
4508.382,193.0
4518.394,210.0
4525.555,200.0
4538.357,210.0
4548.378,193.0
4558.389,204.0
4568.406,199.0
4578.428,195.0
4588.439,183.0
4595.665,200.0
4608.472,189.0
4618.483,192.0
4628.492,190.0
4638.501,202.0
4648.511,177.0
4655.86,179.0
4668.533,181.0
4678.543,187.0
4688.554,178.0
4698.575,199.0
4708.587,188.0
4716.04,187.0
4728.361,190.0
4738.389,191.0
4748.399,196.0
4758.423,184.0
4768.434,187.0
4775.601,193.0
4788.473,196.0
4798.483,202.0
4808.507,195.0
4818.517,198.0
4828.53,183.0
4836.903,219.0
4848.361,223.0
4858.384,202.0
4868.395,199.0
4878.406,199.0
4888.42,194.0
4895.72,209.0
4908.442,186.0
4918.452,187.0
4929.033,186.0
4939.05,189.0
4949.063,186.0
4955.975,209.0
4966.642,179.0
4978.356,181.0
4988.381,196.0
4996.189,178.0
5007.633,184.0
5015.574,206.0
5028.388,187.0
5038.398,192.0
5048.409,189.0
5058.419,185.0
5068.432,176.0
5075.785,192.0
5088.454,205.0
5098.462,171.0
5108.472,173.0
5118.486,176.0
5128.496,177.0
5135.984,186.0
5148.532,176.0
5158.541,186.0
5168.552,171.0
5178.575,172.0
5188.586,177.0
5196.203,184.0
5208.363,177.0
5218.384,175.0
5228.394,183.0
5238.414,173.0
5248.424,170.0
5255.61,171.0
5268.446,174.0
5278.456,171.0
5288.465,178.0
5298.475,173.0
5308.488,176.0
5315.82,177.0
5328.511,179.0
5338.525,176.0
5348.535,184.0
5358.546,164.0
5368.555,177.0
5376.009,183.0
5388.588,173.0
5398.613,174.0
5408.627,174.0
5418.649,187.0
5428.659,185.0
5436.192,191.0
5447.012,178.0
5458.364,183.0
5468.375,175.0
5478.386,181.0
5488.396,178.0
5495.638,193.0
5505.677,191.0
5518.362,181.0
5528.371,178.0
5538.381,180.0
5548.393,183.0
5555.61,184.0
5568.426,184.0
5578.44,186.0
5588.462,189.0
5598.473,186.0
5608.504,187.0
5615.794,204.0
5628.546,180.0
5638.557,186.0
5648.582,183.0
5658.594,179.0
5668.619,200.0
5675.972,189.0
5688.374,196.0
5698.384,194.0
5708.394,206.0
5718.405,195.0
5728.416,195.0
5735.662,193.0
5748.436,179.0
5755.738,208.0
5768.375,170.0
5778.393,194.0
5788.407,181.0
5795.545,183.0
5808.43,176.0
5818.452,189.0
5828.463,174.0
5838.486,168.0
5848.496,170.0
5855.733,171.0
5865.772,168.0
5878.551,170.0
5888.562,171.0
5895.861,176.0
5908.368,178.0
5915.503,167.0
5928.391,170.0
5938.418,168.0
5945.62,166.0
5956.361,171.0
5968.502,189.0
5978.525,179.0
5988.546,176.0
5998.564,183.0
6008.575,169.0
6018.601,176.0
6028.612,180.0
6036.221,173.0
6047.816,166.0
6057.866,173.0
6067.862,168.0
6077.911,166.0
6085.681,171.0
6098.374,182.0
6108.412,183.0
6118.423,177.0
6128.669,159.0
6138.679,157.0
6145.617,165.0
6158.37,151.0
6168.401,151.0
6177.06,153.0
6187.094,159.0
6198.374,172.0
6208.386,168.0
6218.397,163.0
6228.437,173.0
6238.449,153.0
6248.46,153.0
6256.084,152.0
6268.379,152.0
6275.494,176.0
6288.407,157.0
6298.426,158.0
6308.502,162.0
6318.52,158.0
6328.77,161.0
6338.787,161.0
6348.801,154.0
6358.82,165.0
6368.831,153.0
6378.852,168.0
6388.862,155.0
6395.845,170.0
6408.886,163.0
6418.897,159.0
6428.908,139.0
6438.919,135.0
6448.929,135.0
6456.048,147.0
6468.954,139.0
6478.964,142.0
6488.973,149.0
6498.985,150.0
6509.029,145.0
6516.245,147.0
6528.377,139.0
6538.4,135.0
6548.41,139.0
6558.429,142.0
6568.439,153.0
6575.609,155.0
6588.466,144.0
6598.49,143.0
6608.499,147.0
6618.519,138.0
6628.53,139.0
6635.786,150.0
6648.569,157.0
6658.589,141.0
6665.868,143.0
6677.876,143.0
6688.369,144.0
6698.392,144.0
6706.818,141.0
6718.368,140.0
6728.394,145.0
6738.591,142.0
6748.603,143.0
6755.655,158.0
6768.626,152.0
6778.637,166.0
6785.751,139.0
6798.37,149.0
6808.38,145.0
6818.39,157.0
6828.405,140.0
6835.674,150.0
6848.433,153.0
6855.726,140.0
6868.456,149.0
6875.786,146.0
6888.49,135.0
6898.502,136.0
6908.528,136.0
6918.538,144.0
6928.574,145.0
6935.95,158.0
6948.608,140.0
6958.62,142.0
6968.633,144.0
6978.643,138.0
6988.653,142.0
6996.142,135.0
7007.47,137.0
7018.378,135.0
7028.394,149.0
7038.405,137.0
7048.424,136.0
7055.59,149.0
7065.623,147.0
7078.39,134.0
7088.409,134.0
7098.421,145.0
7108.447,138.0
7115.587,139.0
7128.477,144.0
7138.487,134.0
7148.506,140.0
7158.517,141.0
7168.536,135.0
7175.741,158.0
7188.568,141.0
7198.578,141.0
7208.599,137.0
7218.609,145.0
7228.629,137.0
7235.903,147.0
7248.654,148.0
7258.664,132.0
7268.676,123.0
7278.691,105.0
7288.706,128.0
7296.064,137.0
7308.727,108.0
7318.738,106.0
7328.748,110.0
7338.759,104.0
7348.769,123.0
7356.253,140.0
7368.374,140.0
7378.384,118.0
7388.394,120.0
7398.405,118.0
7408.417,120.0
7415.618,118.0
7428.438,105.0
7438.449,100.0
7448.459,100.0
7458.469,121.0
7468.491,132.0
7475.786,149.0
7488.516,121.0
7498.526,126.0
7508.546,121.0
7518.556,118.0
7528.574,105.0
7535.94,117.0
7548.601,122.0
7558.61,136.0
7568.622,102.0
7578.633,123.0
7588.644,103.0
7596.094,103.0
7608.394,106.0
7618.415,75.0
7628.43,59.0
7638.445,121.0
7648.459,113.0
7658.474,119.0
7668.49,95.0
7678.504,54.0
7688.516,93.0
7698.527,92.0
7708.544,92.0
7715.767,69.0
7728.572,87.0
7738.586,100.0
7748.598,93.0
7758.608,98.0
7768.62,83.0
7775.948,108.0
7788.646,101.0
7798.659,61.0
7808.67,52.0
7818.682,51.0
7828.695,54.0
7836.077,62.0
7848.378,57.0
7858.399,56.0
7868.41,51.0
7878.421,52.0
7888.433,87.0
7898.446,115.0
7908.462,55.0
7918.474,55.0
7928.485,53.0
7938.496,49.0
7948.506,88.0
7955.701,54.0
7968.527,88.0
7978.538,89.0
7985.758,54.0
7998.553,50.0
8008.563,98.0
8015.825,126.0
8028.584,82.0
8038.594,69.0
8048.604,62.0
8058.614,57.0
8068.625,53.0
8075.958,55.0
8088.393,53.0
8098.408,53.0
8108.417,85.0
8118.429,53.0
8128.439,87.0
8138.45,123.0
8148.464,50.0
8158.477,56.0
8168.487,87.0
8178.499,86.0
8188.512,88.0
8195.704,66.0
8208.537,50.0
8218.548,50.0
8228.559,67.0
8238.572,50.0
8248.583,50.0
8255.824,93.0
8268.605,51.0
8278.613,51.0
8288.625,51.0
8298.637,87.0
8308.648,49.0
8315.963,110.0
8328.384,53.0
8338.404,86.0
8348.414,86.0
8358.427,56.0
8368.437,90.0
8378.449,85.0
8388.465,90.0
8398.477,52.0
8408.49,86.0
8418.504,59.0
8428.516,48.0
8435.686,58.0
8448.541,88.0
8458.552,57.0
8468.564,89.0
8478.575,52.0
8488.591,87.0
8495.811,123.0
8508.614,87.0
8518.627,54.0
8528.637,51.0
8538.648,51.0
8548.663,88.0
8555.928,57.0
8568.39,87.0
8578.411,57.0
8588.421,91.0
8598.434,56.0
8608.446,55.0
8618.461,110.0
8628.481,53.0
8638.491,67.0
8648.502,51.0
8658.515,56.0
8668.526,71.0
8675.711,54.0
8688.548,88.0
8698.559,67.0
8708.57,53.0
8718.58,85.0
8728.592,71.0
8735.841,111.0
8745.87,87.0
8758.624,56.0
8768.649,62.0
8778.66,85.0
8788.672,52.0
8795.97,57.0
8808.392,50.0
8818.419,51.0
8828.43,87.0
8838.439,87.0
8848.45,53.0
8858.461,113.0
8868.478,87.0
8875.629,54.0
8888.396,90.0
8898.414,51.0
8908.424,48.0
8915.55,49.0
8928.447,67.0
8938.458,52.0
8948.47,51.0
8958.481,53.0
8968.493,51.0
8975.667,103.0
8988.517,62.0
8998.529,62.0
9008.54,49.0
9018.552,51.0
9028.563,56.0
9035.793,96.0
9048.589,61.0
9058.601,60.0
9068.612,55.0
9078.623,64.0
9088.635,49.0
9095.92,92.0
9108.659,88.0
9118.671,51.0
9128.682,48.0
9138.693,57.0
9148.705,54.0
9156.051,52.0
9168.395,52.0
9178.408,67.0
9188.42,51.0
9198.439,50.0
9208.453,87.0
9215.585,114.0
9228.481,85.0
9238.492,68.0
9248.503,51.0
9258.514,91.0
9268.525,49.0
9275.718,95.0
9288.546,51.0
9298.557,49.0
9308.568,51.0
9318.58,49.0
9328.592,49.0
9335.847,113.0
9348.618,49.0
9358.629,48.0
9368.639,50.0
9378.651,49.0
9388.662,50.0
9395.988,97.0
9408.396,48.0
9418.407,51.0
9428.418,49.0
9438.43,59.0
9448.442,61.0
9458.454,88.0
9468.469,51.0
9478.484,52.0
9488.495,49.0
9498.506,49.0
9508.518,48.0
9515.725,96.0
9528.545,48.0
9538.558,62.0
9548.57,49.0
9558.58,49.0
9568.592,66.0
9575.86,95.0
9588.629,85.0
9598.64,54.0
9608.653,64.0
9618.664,51.0
9628.676,50.0
9635.992,123.0
9648.408,50.0
9658.42,49.0
9668.499,68.0
9678.509,67.0
9688.52,84.0
9698.531,86.0
9708.55,59.0
9718.563,50.0
9728.574,51.0
9738.584,85.0
9748.598,51.0
9755.711,53.0
9768.621,56.0
9778.643,52.0
9788.658,51.0
9798.667,53.0
9808.679,56.0
9815.843,116.0
9828.701,56.0
9838.714,54.0
9848.725,53.0
9858.736,53.0
9868.752,90.0
9875.98,86.0
9888.401,87.0
9898.418,49.0
9908.429,49.0
9918.44,67.0
9928.451,52.0
9938.461,107.0
9948.476,67.0
9958.488,50.0
9968.499,49.0
9978.512,49.0
9988.523,50.0
9995.733,100.0
10008.576,48.0
10018.591,49.0
10028.62,50.0
10038.63,48.0
10048.644,49.0
10055.865,89.0
10068.669,51.0
10078.679,51.0
10088.69,91.0
10098.703,51.0
10108.721,85.0
10116.002,52.0
10128.402,87.0
10138.418,54.0
10148.437,56.0
10158.447,54.0
10168.458,54.0
10178.469,114.0
10188.484,82.0
10198.495,51.0
10208.506,48.0
10218.516,51.0
10228.526,87.0
10235.729,111.0
10248.547,56.0
10258.559,50.0
10268.581,51.0
10278.593,49.0
10288.604,55.0
10295.846,113.0
10308.642,49.0
10318.652,59.0
10328.663,49.0
10338.675,50.0
10348.688,49.0
10355.997,126.0
10368.401,50.0
10378.412,54.0
10388.428,49.0
10398.44,49.0
10408.45,49.0
10418.462,117.0
10428.478,56.0
10438.486,54.0
10448.497,52.0
10458.509,86.0
10468.52,90.0
10475.738,67.0
10488.541,51.0
10498.551,51.0
10508.567,87.0
10518.578,56.0
10528.588,57.0
10535.857,110.0
10548.612,49.0
10558.623,49.0
10568.637,48.0
10575.947,67.0
10588.41,49.0
10595.531,101.0
10608.431,50.0
10618.441,50.0
10628.452,49.0
10638.463,50.0
10648.472,49.0
10655.649,94.0
10668.495,49.0
10678.506,48.0
10688.516,50.0
10698.526,51.0
10708.536,86.0
10715.769,53.0
10728.561,52.0
10738.572,55.0
10748.583,54.0
10758.596,51.0
10768.613,57.0
10775.885,122.0
10788.634,85.0
10798.644,60.0
10808.655,71.0
10818.665,53.0
10828.676,51.0
10836.021,97.0
10848.426,49.0
10858.437,51.0
10868.448,50.0
10878.46,50.0
10888.471,61.0
10898.481,112.0
10908.497,50.0
10918.508,61.0
10928.519,50.0
10938.529,48.0
10948.539,56.0
10955.731,101.0
10968.563,56.0
10978.576,49.0
10988.587,48.0
10998.599,53.0
11008.61,53.0
11015.928,100.0
11028.634,51.0
11038.644,49.0
11048.655,49.0
11058.667,48.0
11068.678,86.0
11076.069,127.0
11088.431,72.0
11098.441,55.0
11108.451,55.0
11118.462,49.0
11128.473,47.0
11138.483,113.0
11148.497,67.0
11158.508,67.0
11168.519,49.0
11178.529,49.0
11188.54,62.0
11195.752,52.0
11208.565,51.0
11218.576,68.0
11228.587,49.0
11238.664,49.0
11248.674,49.0
11255.878,108.0
11268.698,49.0
11278.712,49.0
11288.724,63.0
11298.747,54.0
11308.759,92.0
11316.002,92.0
11328.42,52.0
11338.437,51.0
11348.446,49.0
11358.457,53.0
11368.468,52.0
11378.478,111.0
11388.495,54.0
11398.523,48.0
11408.534,50.0
11418.545,50.0
11428.554,54.0
11435.749,54.0
11448.579,56.0
11455.787,67.0
11468.421,66.0
11478.432,51.0
11488.445,67.0
11498.455,114.0
11508.475,87.0
11518.489,53.0
11528.501,54.0
11538.512,60.0
11548.523,69.0
11555.71,54.0
11568.545,59.0
11578.555,67.0
11588.567,53.0
11598.579,51.0
11608.592,56.0
11615.822,112.0
11628.622,52.0
11638.67,54.0
11648.688,56.0
11658.699,59.0
11668.711,56.0
11675.949,111.0
11688.425,53.0
11698.435,56.0
11708.451,55.0
11718.463,51.0
11728.475,67.0
11738.487,113.0
11748.505,86.0
11758.517,64.0
11768.528,61.0
11778.543,56.0
11788.553,57.0
11795.735,57.0
11808.577,62.0
11818.59,55.0
11828.619,57.0
11838.631,61.0
11848.646,50.0
11855.847,114.0
11868.673,53.0
11878.685,56.0
11888.711,48.0
11898.724,54.0
11908.735,68.0
11915.968,54.0
11928.426,51.0
11938.437,53.0
11948.449,87.0
11958.461,54.0
11968.472,53.0
11978.483,90.0
11988.499,64.0
11998.509,53.0
12008.521,51.0
12018.531,57.0
12028.543,51.0
12035.743,99.0
12048.568,56.0
12058.58,51.0
12068.591,51.0
12078.602,48.0
12088.622,47.0
12095.86,118.0
12108.655,90.0
12118.677,49.0
12128.688,58.0
12138.7,50.0
12148.711,58.0
12155.988,92.0
12168.432,49.0
12178.446,48.0
12188.456,48.0
12198.469,51.0
12205.603,49.0
12218.24,125.0
12228.432,75.0
12238.444,48.0
12248.456,51.0
12258.467,52.0
12268.479,50.0
12275.654,54.0
12288.504,53.0
12298.516,59.0
12308.533,51.0
12318.548,62.0
12328.563,66.0
12335.775,86.0
12348.619,67.0
12358.636,66.0
12368.655,69.0
12378.666,69.0
12388.677,75.0
12395.907,103.0
12408.431,89.0
12418.446,53.0
12428.456,72.0
12438.47,52.0
12448.482,82.0
12458.496,125.0
12468.512,71.0
12478.524,69.0
12488.535,91.0
12498.547,71.0
12508.558,67.0
12515.744,98.0
12528.583,67.0
12535.781,66.0
12548.442,67.0
12558.453,67.0
12568.465,89.0
12578.477,96.0
12588.492,51.0
12598.502,69.0
12608.515,56.0
12618.53,49.0
12628.541,66.0
12635.725,113.0
12648.564,67.0
12658.576,58.0
12668.59,51.0
12678.601,62.0
12688.611,87.0
12695.843,111.0
12708.635,55.0
12718.648,113.0
12725.904,53.0
12738.437,85.0
12748.453,52.0
12755.571,91.0
12768.478,61.0
12778.49,98.0
12788.502,88.0
12798.515,87.0
12808.527,67.0
12815.702,101.0
12828.552,66.0
12838.562,92.0
12848.574,50.0
12858.585,49.0
12868.597,65.0
12875.819,95.0
12888.622,65.0
12898.632,88.0
12908.643,56.0
12918.658,49.0
12928.669,67.0
12935.945,87.0
12948.692,51.0
12958.703,49.0
12968.715,87.0
12978.727,50.0
12988.738,55.0
12996.07,55.0
13008.44,57.0
13018.456,54.0
13028.466,67.0
13038.48,51.0
13048.491,82.0
13058.503,110.0
13068.519,74.0
13078.529,95.0
13088.541,95.0
13098.553,95.0
13108.566,95.0
13115.745,114.0
13128.589,89.0
13138.602,93.0
13148.615,51.0
13158.643,84.0
13168.652,49.0
13175.862,92.0
13188.675,56.0
13198.686,49.0
13208.697,55.0
13218.708,48.0
13228.724,49.0
13235.99,108.0
13248.44,51.0
13258.455,48.0
13268.466,54.0
13278.475,51.0
13288.489,50.0
13298.505,110.0
13308.522,53.0
13318.532,54.0
13328.543,57.0
13338.555,53.0
13348.565,54.0
13355.776,54.0
13368.588,52.0
13378.6,49.0
13388.612,49.0
13398.625,51.0
13405.872,58.0
13418.444,104.0
13428.463,67.0
13438.474,67.0
13448.487,56.0
13458.498,51.0
13468.511,53.0
13475.673,54.0
13488.535,48.0
13498.548,61.0
13508.559,49.0
13518.571,51.0
13528.584,50.0
13535.792,124.0
13548.612,56.0
13558.624,49.0
13568.638,49.0
13578.65,48.0
13588.663,49.0
13595.914,88.0
13608.684,49.0
13618.694,56.0
13628.706,52.0
13638.718,48.0
13648.73,50.0
13656.032,88.0
13668.755,51.0
13678.766,49.0
13688.788,49.0
13698.799,48.0
13708.808,49.0
13716.154,95.0
13728.448,55.0
13738.459,49.0
13748.469,49.0
13758.48,87.0
13768.494,51.0
13778.505,114.0
13788.523,56.0
13798.539,62.0
13808.555,48.0
13818.568,88.0
13828.58,65.0
13835.765,119.0
13848.607,95.0
13858.618,96.0
13868.63,96.0
13878.655,93.0
13888.669,75.0
13895.885,121.0
13908.699,49.0
13918.713,49.0
13928.73,48.0
13938.741,48.0
13948.753,48.0
13956.017,67.0
13968.449,62.0
13978.461,51.0
13988.471,49.0
13998.483,53.0
14008.494,54.0
14018.505,105.0
14028.524,49.0
14038.538,51.0
14048.549,58.0
14058.562,49.0
14068.577,49.0
14075.769,92.0
14088.602,47.0
14098.614,49.0
14108.628,48.0
14118.643,50.0
14128.656,49.0
14135.891,123.0
14148.681,53.0
14158.694,59.0
14168.709,49.0
14178.721,50.0
14188.733,91.0
14196.024,103.0
14208.75,50.0
14218.764,49.0
14228.775,64.0
14236.11,56.0
14248.793,89.0
14256.159,94.0
14268.815,48.0
14278.824,62.0
14288.834,49.0
14298.844,55.0
14308.856,52.0
14316.28,100.0
14328.873,85.0
14338.884,50.0
14348.894,48.0
14358.906,59.0
14368.917,51.0
14376.405,95.0
14388.962,60.0
14398.974,49.0
14408.987,50.0
14416.485,49.0
14426.51,51.0
14435.557,128.0
14448.468,70.0
14458.48,52.0
14468.491,53.0
14478.502,50.0
14488.513,87.0
14495.686,88.0
14508.536,85.0
14518.548,49.0
14528.56,49.0
14538.572,56.0
14548.584,59.0
14555.805,69.0
14568.61,49.0
14578.626,51.0
14588.64,48.0
14598.658,49.0
14608.673,48.0
14615.93,106.0
14628.71,54.0
14638.728,50.0
14648.74,55.0
14658.768,49.0
14668.788,51.0
14676.069,54.0
14688.803,60.0
14698.814,51.0
14708.825,49.0
14718.835,59.0
14728.843,51.0
14736.189,126.0
14748.863,49.0
14758.872,57.0
14768.883,49.0
14778.894,51.0
14788.904,92.0
14796.324,118.0
14808.927,85.0
14818.938,48.0
14828.947,50.0
14838.958,49.0
14848.969,51.0
14856.447,101.0
14868.992,51.0
14879.003,49.0
14886.518,59.0
14898.465,51.0
14908.476,49.0
14915.598,91.0
14928.498,66.0
14938.511,51.0
14948.521,68.0
14958.531,48.0
14968.541,50.0
14978.555,116.0
14988.57,84.0
14998.581,78.0
15008.593,62.0
15018.605,66.0
15028.616,52.0
15035.848,103.0
15048.638,88.0
15058.652,56.0
15068.664,51.0
15078.676,108.0
15088.688,69.0
15095.966,110.0
15108.73,52.0
15118.752,50.0
15128.784,51.0
15138.799,60.0
15148.812,51.0
15156.102,53.0
15166.614,51.0
15178.47,50.0
15188.48,85.0
15198.491,50.0
15208.501,51.0
15218.512,108.0
15228.529,59.0
15238.545,57.0
15248.555,51.0
15258.569,52.0
15268.58,54.0
15275.768,57.0
15288.605,57.0
15298.618,57.0
15308.633,77.0
15318.645,85.0
15328.656,48.0
15335.883,99.0
15348.685,53.0
15358.695,51.0
15368.712,52.0
15378.727,49.0
15388.739,59.0
15396.012,113.0
15406.584,49.0
15418.472,49.0
15428.484,63.0
15438.495,50.0
15448.505,66.0
15458.516,97.0
15468.533,86.0
15478.545,53.0
15488.555,53.0
15498.566,66.0
15508.579,54.0
15515.771,82.0
15528.603,62.0
15538.614,49.0
15548.627,68.0
15558.638,53.0
15568.649,57.0
15575.892,124.0
15588.674,66.0
15598.688,48.0
15608.706,86.0
15618.719,51.0
15628.73,87.0
15636.022,96.0
15646.586,51.0
15658.472,53.0
15668.487,53.0
15678.501,53.0
15688.511,49.0
15698.522,111.0
15708.54,87.0
15718.55,86.0
15728.562,50.0
15738.576,50.0
15748.588,70.0
15755.78,109.0
15768.623,51.0
15778.635,51.0
15788.647,59.0
15798.658,50.0
15808.672,54.0
15815.913,113.0
15828.696,51.0
15835.961,50.0
15847.581,92.0
15858.474,82.0
15868.491,88.0
15875.611,50.0
15888.516,93.0
15898.527,98.0
15908.542,80.0
15918.552,84.0
15928.564,49.0
15938.577,105.0
15948.594,90.0
15958.606,51.0
15968.618,87.0
15978.631,51.0
15988.642,49.0
15995.873,96.0
16007.538,90.0
16018.474,49.0
16028.489,46.0
16038.499,86.0
16048.531,63.0
16058.544,103.0
16068.561,48.0
16078.572,50.0
16088.582,50.0
16098.594,51.0
16108.605,50.0
16115.795,105.0
16128.635,49.0
16138.647,48.0
16148.658,49.0
16158.67,49.0
16168.681,50.0
16175.92,118.0
16188.706,87.0
16198.717,54.0
16208.728,53.0
16218.74,76.0
16228.754,49.0
16236.054,94.0
16246.591,53.0
16258.477,54.0
16268.487,53.0
16278.506,64.0
16288.516,50.0
16298.527,121.0
16308.544,90.0
16318.554,66.0
16328.564,50.0
16338.576,62.0
16348.588,85.0
16355.795,93.0
16368.611,49.0
16378.622,49.0
16388.635,59.0
16398.647,48.0
16408.659,50.0
16415.917,90.0
16428.683,49.0
16438.694,57.0
16448.705,51.0
16458.717,48.0
16468.731,49.0
16476.051,132.0
16486.493,49.0
16498.487,54.0
16508.498,49.0
16518.515,48.0
16528.527,67.0
16538.543,112.0
16548.56,86.0
16558.571,57.0
16568.582,54.0
16578.594,50.0
16588.606,48.0
16595.8,90.0
16608.637,65.0
16618.649,54.0
16628.664,49.0
16638.674,54.0
16648.685,50.0
16655.927,120.0
16668.728,56.0
16678.738,51.0
16688.759,50.0
16698.771,49.0
16708.785,53.0
16716.059,98.0
16727.55,64.0
16738.491,51.0
16748.502,48.0
16758.512,51.0
16768.523,49.0
16778.534,100.0
16788.549,51.0
16798.565,48.0
16808.575,50.0
16818.587,66.0
16828.599,53.0
16835.807,91.0
16848.622,49.0
16858.64,50.0
16868.651,51.0
16878.662,57.0
16888.673,64.0
16895.927,108.0
16908.698,49.0
16918.709,50.0
16928.721,59.0
16938.732,48.0
16948.743,54.0
16956.057,92.0
16966.645,48.0
16978.496,48.0
16988.507,57.0
16998.516,63.0
17008.527,64.0
17018.538,108.0
17028.554,85.0
17038.564,51.0
17048.575,52.0
17058.587,49.0
17068.598,48.0
17075.78,54.0
17088.623,48.0
17098.634,49.0
17108.645,52.0
17118.657,49.0
17128.669,53.0
17135.893,98.0
17148.696,60.0
17158.71,55.0
17168.721,57.0
17178.731,54.0
17188.746,62.0
17196.026,124.0
17207.556,67.0
17218.497,51.0
17228.507,55.0
17238.519,54.0
17248.53,51.0
17258.543,91.0
17268.559,60.0
17278.569,48.0
17288.58,50.0
17298.591,67.0
17308.606,51.0
17315.795,91.0
17328.628,50.0
17338.638,49.0
17348.651,54.0
17358.661,64.0
17368.678,56.0
17375.913,109.0
17388.702,61.0
17398.714,51.0
17408.765,52.0
17418.777,54.0
17428.792,48.0
17436.05,93.0
17447.559,60.0
17458.498,52.0
17468.512,61.0
17478.525,51.0
17488.536,51.0
17498.546,108.0
17508.562,48.0
17518.573,53.0
17528.585,49.0
17538.604,51.0
17548.616,50.0
17555.81,92.0
17568.641,49.0
17578.652,49.0
17588.664,58.0
17598.675,50.0
17608.687,51.0
17615.918,109.0
17628.711,51.0
17638.724,54.0
17648.736,54.0
17658.747,51.0
17668.758,48.0
17676.045,90.0
17687.602,92.0
17698.502,61.0
17708.512,49.0
17718.525,49.0
17728.535,49.0
17738.545,105.0
17748.56,53.0
17758.57,66.0
17768.581,50.0
17778.593,49.0
17788.606,49.0
17795.807,93.0
17808.628,86.0
17818.639,56.0
17828.657,56.0
17838.668,49.0
17848.68,50.0
17855.921,112.0
17868.706,50.0
17878.716,49.0
17888.726,48.0
17898.743,49.0
17908.753,58.0
17916.089,93.0
17927.805,51.0
17938.504,48.0
17948.517,48.0
17958.526,48.0
17968.539,62.0
17978.551,126.0
17988.566,62.0
17998.577,50.0
18008.59,49.0
18018.602,50.0
18028.614,56.0
18035.812,93.0
18048.641,49.0
18058.652,49.0
18068.666,50.0
18078.678,49.0
18088.689,51.0
18095.939,99.0
18108.712,59.0
18118.722,59.0
18128.754,58.0
18138.764,55.0
18148.775,53.0
18156.065,105.0
18168.076,51.0
18178.511,61.0
18188.522,88.0
18198.533,54.0
18208.546,52.0
18218.558,103.0
18228.573,71.0
18238.584,51.0
18248.596,85.0
18258.608,49.0
18268.622,51.0
18275.795,93.0
18288.646,60.0
18298.662,53.0
18305.854,69.0
18318.519,67.0
18328.531,52.0
18338.543,105.0
18348.559,51.0
18358.57,49.0
18368.581,85.0
18378.593,49.0
18388.605,53.0
18395.766,123.0
18405.789,49.0
18418.514,49.0
18428.527,49.0
18438.539,56.0
18448.55,52.0
18458.562,104.0
18468.579,95.0
18478.589,55.0
18488.602,51.0
18498.614,51.0
18508.626,96.0
18515.8,108.0
18528.648,85.0
18535.84,48.0
18548.539,48.0
18558.549,56.0
18568.562,85.0
18578.577,101.0
18588.596,53.0
18598.608,50.0
18608.62,64.0
18618.637,62.0
18628.647,50.0
18635.788,90.0
18648.673,48.0
18658.685,51.0
18668.698,62.0
18678.709,48.0
18688.72,49.0
18698.731,103.0
18705.936,65.0
18718.519,55.0
18728.53,67.0
18738.542,54.0
18748.552,90.0
18755.671,119.0
18768.574,56.0
18778.586,54.0
18788.6,79.0
18798.611,57.0
18808.622,91.0
18815.79,89.0
18828.648,54.0
18838.661,61.0
18848.673,48.0
18858.685,66.0
18868.696,48.0
18875.92,95.0
18888.52,49.0
18898.53,59.0
18908.539,48.0
18918.552,51.0
18928.563,66.0
18938.577,104.0
18948.594,50.0
18958.606,51.0
18968.617,51.0
18978.629,56.0
18988.64,66.0
18995.791,92.0
19008.665,59.0
19018.677,49.0
19028.691,48.0
19038.702,50.0
19048.713,56.0
19055.898,99.0
19068.736,50.0
19078.746,49.0
19085.956,56.0
19098.522,56.0
19108.537,51.0
19115.645,49.0
19128.56,48.0
19138.571,48.0
19148.582,49.0
19158.595,57.0
19168.609,55.0
19175.779,111.0
19188.637,59.0
19198.649,61.0
19208.669,67.0
19218.68,65.0
19228.692,66.0
19235.932,91.0
19248.719,67.0
19258.731,67.0
19265.993,67.0
19278.53,49.0
19288.542,66.0
19298.554,103.0
19308.57,68.0
19318.583,49.0
19328.595,86.0
19338.607,67.0
19348.619,66.0
19355.774,90.0
19368.653,67.0
19375.818,48.0
19388.524,49.0
19398.535,66.0
19408.549,50.0
19418.562,107.0
19428.578,62.0
19438.591,48.0
19448.603,57.0
19458.614,88.0
19468.625,53.0
19475.768,74.0
19485.789,53.0
19498.528,55.0
19508.538,52.0
19518.55,50.0
19528.562,59.0
19538.574,101.0
19548.592,87.0
19558.603,56.0
19568.614,53.0
19578.625,49.0
19588.636,66.0
19595.825,75.0
19608.659,66.0
19618.671,48.0
19628.682,52.0
19638.693,48.0
19648.704,50.0
19658.716,102.0
19668.732,51.0
19678.743,57.0
19688.754,52.0
19698.766,51.0
19708.777,49.0
19716.093,96.0
19728.529,59.0
19738.54,48.0
19748.551,66.0
19758.562,64.0
19768.573,49.0
19778.584,105.0
19788.599,58.0
19798.611,86.0
19808.633,50.0
19818.644,53.0
19828.656,68.0
19835.843,93.0
19848.682,66.0
19858.695,64.0
19868.707,49.0
19878.718,67.0
19888.729,92.0
19895.974,103.0
19908.754,72.0
19918.766,62.0
19928.778,67.0
19938.79,67.0
19948.802,67.0
19956.121,96.0
19968.53,68.0
19978.541,67.0
19988.551,67.0
19998.567,66.0
20008.58,66.0
20018.59,103.0
20028.605,67.0
20038.616,73.0
20048.627,86.0
20058.64,51.0
20068.652,51.0
20075.814,56.0
20088.675,64.0
20098.687,62.0
20108.698,53.0
20118.71,49.0
20128.721,85.0
20135.953,103.0
20148.753,63.0
20158.765,50.0
20168.778,48.0
20178.789,49.0
20188.801,49.0
20196.09,95.0
20208.533,57.0
20218.546,65.0
20228.557,51.0
20238.572,49.0
20248.582,84.0
20258.594,101.0
20268.608,48.0
20278.62,48.0
20288.631,63.0
20298.644,50.0
20308.655,51.0
20315.852,95.0
20328.691,87.0
20338.702,53.0
20348.714,49.0
20358.727,50.0
20368.74,49.0
20375.97,102.0
20388.77,93.0
20398.781,50.0
20408.791,52.0
20418.803,52.0
20428.817,84.0
20436.103,53.0
20448.54,54.0
20458.551,53.0
20468.564,51.0
20478.574,60.0
20488.587,50.0
20498.6,100.0
20508.617,49.0
20518.63,50.0
20528.642,57.0
20538.653,48.0
20548.664,66.0
20555.801,97.0
20568.687,50.0
20578.698,49.0
20588.709,85.0
20598.722,57.0
20608.733,63.0
20615.918,103.0
20628.758,50.0
20638.769,51.0
20648.782,51.0
20658.792,49.0
20668.807,52.0
20676.038,91.0
20688.545,49.0
20698.554,48.0
20708.564,61.0
20718.575,51.0
20728.585,49.0
20738.596,103.0
20748.624,61.0
20758.636,49.0
20768.657,68.0
20778.669,85.0
20788.681,67.0
20795.869,94.0
20808.543,51.0
20818.555,51.0
20828.565,77.0
20838.576,50.0
20848.589,52.0
20858.599,100.0
20868.615,49.0
20878.629,49.0
20888.64,49.0
20898.652,48.0
20908.663,51.0
20915.839,92.0
20928.698,51.0
20938.71,87.0
20948.725,51.0
20958.738,49.0
20968.75,49.0
20975.968,107.0
20988.774,86.0
20998.786,51.0
21008.799,49.0
21018.81,53.0
21028.822,54.0
21036.09,92.0
21048.55,87.0
21058.567,50.0
21068.577,48.0
21078.588,49.0
21088.599,66.0
21098.61,92.0
21108.629,85.0
21118.64,62.0
21128.651,85.0
21138.663,55.0
21148.675,85.0
21155.851,108.0
21168.698,56.0
21178.71,54.0
21188.721,87.0
21198.733,49.0
21205.95,49.0
21215.987,101.0
21228.763,56.0
21238.773,62.0
21248.785,87.0
21258.796,52.0
21268.808,56.0
21276.13,91.0
21288.553,104.0
21298.563,49.0
21308.573,93.0
21318.584,49.0
21328.594,64.0
21335.731,93.0
21348.637,53.0
21358.649,56.0
21368.665,99.0
21378.677,60.0
21388.69,49.0
21395.868,98.0
21408.557,51.0
21418.57,48.0
21428.581,95.0
21438.592,51.0
21448.603,53.0
21458.614,100.0
21468.631,96.0
21478.643,49.0
21488.658,114.0
21498.669,52.0
21508.68,56.0
21515.852,97.0
21528.554,87.0
21538.563,51.0
